##TITLE= leere Blende_Ende_5mm_240124
##JCAMP-DX= 4.24
##DATA TYPE= UV/VIS SPECTRUM
##ORIGIN=  Lambda-SPX/P Scan
##OWNER= Optiplex/OPTIPLEX-755
##DATE= 24.01.2024 17:09:08
##SPECTROMETER/DATA SYSTEM= Lambda 19 UV/Vis/NIR
##SAMPLE DESCRIPTION= 240124
##DELTAX= 0.5
##XUNITS= NANOMETERS
##YUNITS= TRANSMITTANCE
$$COMMENT= RTUNITS 0-1
##XFACTOR= 1.0
##YFACTOR= 0.01
##FIRSTX= 190
##LASTX= 2800
##NPOINTS= 5221
##FIRSTY= 1.010843
##MAXY= 1.010929
##MINY= 0.991882
##XYDATA= (XY..XY)
190 101.084256
190.5 100.90493
191 100.423968
191.5 100.463879
192 99.654889
192.5 100.005651
193 99.795216
193.5 100.486338
194 100.140584
194.5 100.594711
195 99.969089
195.5 99.750525
196 100.800276
196.5 99.662566
197 100.679553
197.5 99.930418
198 100.35671
198.5 100.166225
199 100.272369
199.5 100.182462
200 100.096798
200.5 99.901396
201 100.13541
201.5 100.615263
202 99.702936
202.5 100.427365
203 99.927652
203.5 100.409102
204 99.986643
204.5 100.173759
205 100.375259
205.5 100.152946
206 100.414503
206.5 99.965799
207 100.191116
207.5 100.056171
208 100.131536
208.5 100.132203
209 100.450146
209.5 100.139856
210 100.384963
210.5 100.338817
211 100.081515
211.5 100.604701
212 100.141144
212.5 100.373983
213 99.835211
213.5 100.225222
214 99.901396
214.5 100.210512
215 100.139511
215.5 100.267005
216 100.188363
216.5 99.824983
217 100.280643
217.5 99.918038
218 100.247061
218.5 99.882948
219 100.327897
219.5 100.041544
220 100.116813
220.5 100.146174
221 100.016296
221.5 100.479484
222 99.941534
222.5 100.60817
223 99.995226
223.5 100.368905
224 99.931449
224.5 100.309002
225 100.255919
225.5 100.102317
226 100.229347
226.5 100.046313
227 100.31153
227.5 99.712282
228 100.286043
228.5 99.949962
229 100.181282
229.5 100.05486
230 100.046599
230.5 100.120306
231 99.92854
231.5 100.330043
232 99.932337
232.5 100.340331
233 99.888158
233.5 100.431204
234 100.060737
234.5 100.38662
235 100.13864
235.5 100.166154
236 100.498021
236.5 99.993217
237 100.298107
237.5 99.789828
238 100.215924
238.5 99.791861
239 100.328588
239.5 99.928004
240 100.034821
240.5 100.055659
241 100.055313
241.5 100.318289
242 99.881971
242.5 100.328946
243 99.936306
243.5 100.381422
244 100.038743
244.5 100.349402
245 100.075936
245.5 100.135756
246 100.164866
246.5 100.052691
247 100.476491
247.5 99.806756
248 100.350583
248.5 99.87101
249 100.269866
249.5 99.852628
250 100.098813
250.5 100.147378
251 99.944609
251.5 100.244749
252 99.884069
252.5 100.222015
253 99.786139
253.5 100.374377
254 99.916375
254.5 100.151432
255 100.099313
255.5 100.084627
256 100.271082
256.5 99.889415
257 100.317764
257.5 99.90207
258 100.451159
258.5 99.942273
259 100.310075
259.5 100.018525
260 100.085735
260.5 100.103569
261 100.090301
261.5 100.326312
262 99.806356
262.5 100.235748
263 99.705732
263.5 100.374472
264 99.944067
264.5 100.180507
265 100.0175
265.5 100.086713
266 100.232339
266.5 99.920744
267 100.22651
267.5 99.823421
268 100.28348
268.5 100.001836
269 100.195348
269.5 100.072765
270 100.068879
270.5 100.156629
271 100.001621
271.5 100.281537
272 99.917185
272.5 100.278628
273 99.845338
273.5 100.319374
274 99.879277
274.5 100.120604
275 99.982548
275.5 100.027525
276 100.131571
276.5 99.733251
277 100.175083
277.5 99.832851
278 100.261438
278.5 99.891704
279 100.200653
279.5 99.961066
280 100.187492
280.5 100.146377
281 100.109303
281.5 100.238073
282 99.88783
282.5 100.23582
283 99.923313
283.5 100.302923
284 99.969536
284.5 100.066411
285 99.893934
285.5 100.08105
286 100.067151
286.5 100.042355
287 100.092506
287.5 99.825376
288 100.210154
288.5 99.956501
289 100.227308
289.5 99.893427
290 100.073624
290.5 100.064635
291 100.010955
291.5 100.272417
292 99.869543
292.5 100.347805
293 99.823791
293.5 100.368881
294 99.794412
294.5 100.197029
295 100.031638
295.5 100.054193
296 100.16793
296.5 99.858487
297 100.075853
297.5 99.842501
298 100.196958
298.5 99.672276
299 100.170422
299.5 99.934655
300 100.032639
300.5 100.097871
301 99.873734
301.5 100.084448
302 99.856991
302.5 100.348425
303 99.819595
303.5 100.433946
304 99.90958
304.5 100.198531
305 100.18152
305.5 100.046837
306 100.123632
306.5 99.811769
307 100.252414
307.5 99.730194
308 100.257456
308.5 99.72471
309 100.132287
309.5 99.887246
310 100.018501
310.5 100.049496
311 99.801677
311.5 100.187027
312 99.890459
312.5 100.327063
313 99.901825
313.5 100.192797
314 100.022852
314.5 100.152171
315 100.023901
315.5 100.236487
316 100.247777
316.5 99.917841
317 100.099361
317.5 99.930078
318 100.269234
318.5 99.940753
319 100.235748
319.5 100.054169
320 100.172186
320.5 100.255382
321 100.132978
321.5 99.981445
322 100.074887
322.5 100.172603
323 100.036669
323.5 100.035167
324 100.085759
324.5 100.094879
325 100.093734
325.5 100.035763
326 100.235891
326.5 100.080574
327 100.112355
327.5 100.082016
328 100.13808
328.5 100.069916
329 100.03897
329.5 100.086379
330 100.19815
330.5 100.085509
331 100.221908
331.5 100.135112
332 100.145173
332.5 100.030243
333 100.053704
333.5 100.124335
334 100.093699
334.5 100.197518
335 100.147462
335.5 100.04164
336 100.054443
336.5 100.147009
337 100.216639
337.5 100.017357
338 100.161147
338.5 100.117993
339 100.067222
339.5 100.126958
340 100.092363
340.5 100.038242
341 100.112832
341.5 100.093341
342 100.067234
342.5 100.058293
343 100.027776
343.5 100.060439
344 100.023496
344.5 100.097203
345 100.181246
345.5 100.210094
346 100.128388
346.5 100.114191
347 100.022984
347.5 100.072944
348 100.055134
348.5 100.067163
349 100.112116
349.5 100.078523
350 100.141358
350.5 100.153077
351 100.079012
351.5 100.090802
352 99.978888
352.5 100.131094
353 100.028431
353.5 100.110781
354 100.037694
354.5 100.157499
355 100.071919
355.5 100.024974
356 100.048018
356.5 100.101233
357 100.102437
357.5 100.012541
358 100.073254
358.5 100.072515
359 100.185227
359.5 100.044501
360 100.139403
360.5 100.073612
361 100.129843
361.5 100.194478
362 100.11102
362.5 100.0211
363 100.139558
363.5 100.081503
364 100.247836
364.5 100.233674
365 99.975419
365.5 100.096214
366 100.103033
366.5 100.161183
367 100.089967
367.5 100.12455
368 100.119281
368.5 100.172091
369 100.083804
369.5 100.109553
370 99.997693
370.5 100.023663
371 100.052989
371.5 100.113177
372 100.081968
372.5 100.043988
373 100.105309
373.5 100.011253
374 100.119019
374.5 100.27442
375 100.214601
375.5 100.111675
376 99.962384
376.5 100.07565
377 100.206482
377.5 100.066471
378 100.182378
378.5 100.455487
379 100.078356
379.5 100.34374
380 100.059927
380.5 100.133622
381 100.206041
381.5 100.174224
382 100.157535
382.5 100.164127
383 100.100315
383.5 100.143695
384 100.158238
384.5 100.104487
385 99.907786
385.5 100.097609
386 100.115693
386.5 100.058508
387 100.307524
387.5 100.217736
388 100.147212
388.5 100.094903
389 100.161815
389.5 100.088179
390 100.024807
390.5 100.00391
391 99.972242
391.5 99.930394
392 99.960262
392.5 100.313461
393 100.157762
393.5 100.102913
394 100.204349
394.5 99.996507
395 100.210845
395.5 99.995601
396 100.153518
396.5 100.101805
397 100.160372
397.5 100.127029
398 100.211978
398.5 100.186741
399 100.16464
399.5 100.324261
400 100.13566
400.5 99.958491
401 100.074148
401.5 100.210893
402 100.112844
402.5 100.06963
403 100.305188
403.5 100.100207
404 100.06516
404.5 100.161922
405 100.113797
405.5 100.030005
406 100.295317
406.5 100.036919
407 99.972034
407.5 99.985045
408 100.209522
408.5 100.112414
409 100.066817
409.5 100.203836
410 100.083709
410.5 100.135589
411 100.070322
411.5 100.160587
412 100.066197
412.5 100.147986
413 100.159407
413.5 100.008142
414 100.20268
414.5 100.192976
415 100.104713
415.5 100.197482
416 100.034511
416.5 100.079954
417 100.123382
417.5 100.051403
418 100.071907
418.5 100.140905
419 100.13181
419.5 100.111914
420 100.082278
420.5 100.1387
421 100.296128
421.5 100.08781
422 100.131488
422.5 100.18611
423 100.169516
423.5 100.152123
424 100.137877
424.5 100.137365
425 100.09532
425.5 100.14627
426 100.242579
426.5 100.158477
427 100.088918
427.5 100.08719
428 100.175965
428.5 100.005329
429 100.088274
429.5 99.988902
430 100.016987
430.5 100.137568
431 99.950463
431.5 100.155115
432 100.021136
432.5 100.215042
433 100.019658
433.5 100.246215
434 100.194514
434.5 100.201881
435 100.127149
435.5 100.077701
436 100.135601
436.5 100.056696
437 100.065255
437.5 100.017798
438 100.194764
438.5 100.115049
439 100.020409
439.5 100.06032
440 100.13057
440.5 100.20802
441 100.100648
441.5 100.193703
442 100.045991
442.5 100.100517
443 100.078952
443.5 100.061369
444 99.964815
444.5 99.968201
445 100.100029
445.5 100.190628
446 100.052655
446.5 100.142968
447 100.012004
447.5 100.036299
448 100.206923
448.5 100.118327
449 100.165033
449.5 99.989086
450 100.049758
450.5 100.070548
451 100.133431
451.5 100.131297
452 100.055981
452.5 100.165272
453 100.190639
453.5 100.206804
454 100.118065
454.5 100.231612
455 100.027871
455.5 100.120449
456 100.025737
456.5 100.00211
457 100.112784
457.5 100.21615
458 100.095463
458.5 100.073814
459 100.18822
459.5 100.122356
460 100.064719
460.5 100.073314
461 100.146413
461.5 100.021255
462 100.042176
462.5 100.045049
463 100.045431
463.5 100.087261
464 100.138426
464.5 100.207996
465 100.086701
465.5 100.125504
466 99.995905
466.5 100.170457
467 100.087702
467.5 100.149655
468 100.067437
468.5 100.033116
469 100.151777
469.5 100.10227
470 100.086761
470.5 100.166917
471 100.181663
471.5 100.173628
472 100.090444
472.5 100.143147
473 100.063217
473.5 100.134897
474 100.123227
474.5 100.058484
475 100.040948
475.5 100.138223
476 100.11394
476.5 100.061727
477 100.06696
477.5 100.062549
478 100.098741
478.5 100.02234
479 100.163043
479.5 100.031459
480 100.060797
480.5 100.095201
481 100.115263
481.5 100.198185
482 100.028467
482.5 100.094509
483 100.079536
483.5 100.238168
484 100.171769
484.5 100.091755
485 100.113201
485.5 99.999845
486 100.145328
486.5 100.106239
487 100.239301
487.5 100.060105
488 100.129044
488.5 100.193
489 100.174606
489.5 100.113392
490 100.060403
490.5 100.125754
491 100.046504
491.5 100.137579
492 100.17066
492.5 100.111103
493 100.042558
493.5 100.248015
494 100.133789
494.5 100.164604
495 100.05995
495.5 100.142777
496 99.985784
496.5 100.077605
497 100.02948
497.5 100.092518
498 100.075841
498.5 100.103056
499 100.098968
499.5 100.012529
500 100.167406
500.5 100.044763
501 100.176489
501.5 100.169265
502 100.049627
502.5 100.139582
503 100.085962
503.5 100.16557
504 100.02625
504.5 100.193882
505 100.027382
505.5 100.146687
506 100.097251
506.5 100.12902
507 100.167787
507.5 100.016654
508 100.127912
508.5 100.028181
509 100.138521
509.5 99.981952
510 100.101471
510.5 100.110292
511 100.101054
511.5 100.041163
512 100.153971
512.5 100.130343
513 100.054669
513.5 100.133514
514 100.048804
514.5 100.091386
515 100.044787
515.5 100.130892
516 100.083256
516.5 100.12579
517 100.098658
517.5 100.124311
518 100.181556
518.5 100.086486
519 100.117218
519.5 100.015903
520 100.090981
520.5 100.163424
521 100.210917
521.5 100.080574
522 100.002289
522.5 100.090754
523 100.173783
523.5 100.156212
524 100.077093
524.5 100.08626
525 100.160754
525.5 100.086462
526 100.083268
526.5 100.098634
527 100.099468
527.5 100.018489
528 100.162423
528.5 100.12399
529 100.160146
529.5 100.089729
530 100.119197
530.5 100.114334
531 100.098944
531.5 100.090027
532 100.147331
532.5 100.111353
533 100.084066
533.5 100.149512
534 100.177085
534.5 100.210583
535 100.106633
535.5 100.157344
536 100.097454
536.5 100.09073
537 100.135183
537.5 100.08477
538 100.033987
538.5 100.134552
539 100.149143
539.5 100.176632
540 100.162673
540.5 100.135636
541 100.163066
541.5 100.158954
542 100.103235
542.5 100.057971
543 100.143838
543.5 100.154686
544 100.013983
544.5 100.133097
545 100.086546
545.5 100.210059
546 100.034225
546.5 100.063753
547 100.081408
547.5 100.07205
548 100.06398
548.5 100.15806
549 100.054967
549.5 100.035489
550 100.154221
550.5 100.149071
551 100.078297
551.5 100.120342
552 100.048161
552.5 100.119901
553 100.049329
553.5 100.149131
554 100.107384
554.5 100.217927
555 100.101638
555.5 100.148261
556 100.098765
556.5 100.080967
557 100.065148
557.5 100.174391
558 100.101399
558.5 100.053263
559 100.1441
559.5 100.054657
560 100.110674
560.5 100.067067
561 100.134206
561.5 100.11549
562 100.113714
562.5 100.163078
563 100.133562
563.5 100.171399
564 100.243783
564.5 100.121617
565 100.158906
565.5 100.135005
566 100.201154
566.5 100.081086
567 100.211716
567.5 100.243437
568 100.133789
568.5 100.183392
569 100.129974
569.5 100.124145
570 100.128472
570.5 100.172818
571 100.134516
571.5 100.230968
572 100.007987
572.5 100.162005
573 100.176263
573.5 100.173759
574 100.147021
574.5 100.178206
575 100.228095
575.5 100.108755
576 100.166738
576.5 100.117588
577 100.154674
577.5 100.089324
578 100.22999
578.5 100.278258
579 100.112236
579.5 100.124633
580 100.148511
580.5 100.243592
581 100.110137
581.5 100.165951
582 100.130761
582.5 100.218487
583 100.17935
583.5 100.235665
584 100.198257
584.5 100.085926
585 100.145948
585.5 100.206852
586 100.226653
586.5 100.10314
587 100.146866
587.5 100.165069
588 100.151849
588.5 100.169802
589 100.207734
589.5 100.176573
590 100.152004
590.5 100.136662
591 100.102234
591.5 100.192392
592 100.167143
592.5 100.191975
593 100.068808
593.5 100.196135
594 100.122511
594.5 100.14919
595 100.172496
595.5 100.124466
596 100.230956
596.5 100.144827
597 100.154448
597.5 100.086176
598 100.100899
598.5 100.175822
599 100.168133
599.5 100.167894
600 100.107002
600.5 100.104773
601 100.167453
601.5 100.230253
602 100.167191
602.5 100.162232
603 100.127101
603.5 100.211549
604 100.126648
604.5 100.131726
605 100.162303
605.5 100.206089
606 100.160575
606.5 100.108778
607 100.154674
607.5 100.204384
608 100.271797
608.5 100.118065
609 100.14509
609.5 100.149703
610 100.173295
610.5 100.20411
611 100.176668
611.5 100.139189
612 100.092912
612.5 100.257838
613 100.239468
613.5 100.124884
614 100.147974
614.5 100.088203
615 100.229812
615.5 100.124002
616 100.22856
616.5 100.134885
617 100.190532
617.5 100.177526
618 100.163937
618.5 100.244272
619 100.110018
619.5 100.131142
620 100.120366
620.5 100.220585
621 100.137103
621.5 100.200963
622 100.195038
622.5 100.196075
623 100.109708
623.5 100.110805
624 100.16979
624.5 100.144494
625 100.145662
625.5 100.121021
626 100.10289
626.5 100.126743
627 100.139689
627.5 100.159979
628 100.058711
628.5 100.126278
629 100.083625
629.5 100.133586
630 100.102699
630.5 100.150442
631 100.143635
631.5 100.228834
632 100.174522
632.5 100.141609
633 100.145268
633.5 100.235963
634 100.130892
634.5 100.135338
635 100.182045
635.5 100.074387
636 100.164986
636.5 100.110149
637 100.191939
637.5 100.159454
638 100.188565
638.5 100.043774
639 100.039232
639.5 100.128102
640 100.109351
640.5 100.148356
641 100.004613
641.5 100.160527
642 100.125587
642.5 100.207925
643 100.112236
643.5 100.171232
644 100.218451
644.5 100.064886
645 100.180209
645.5 100.118995
646 100.224757
646.5 100.155175
647 100.185513
647.5 100.0947
648 100.111818
648.5 100.1634
649 100.133324
649.5 100.22701
650 100.163102
650.5 100.125158
651 100.10581
651.5 100.208724
652 100.099516
652.5 100.161433
653 100.144875
653.5 100.146341
654 100.13423
654.5 100.195825
655 100.15223
655.5 100.153375
656 100.146699
656.5 100.151408
657 100.219321
657.5 100.106072
658 100.188112
658.5 100.112009
659 100.184751
659.5 100.147641
660 100.198328
660.5 100.086856
661 100.078046
661.5 100.146079
662 100.1755
662.5 100.21652
663 100.173295
663.5 100.260508
664 100.12815
664.5 100.165284
665 100.108528
665.5 100.125992
666 100.093794
666.5 100.137508
667 100.1809
667.5 100.146317
668 100.184953
668.5 100.14143
669 100.10463
669.5 100.117242
670 100.132644
670.5 100.144684
671 100.159764
671.5 100.21708
672 100.157642
672.5 100.251937
673 100.056481
673.5 100.122535
674 100.173199
674.5 100.182199
675 100.172186
675.5 100.130486
676 100.104582
676.5 100.188506
677 100.189924
677.5 100.160837
678 100.087821
678.5 100.170708
679 100.225782
679.5 100.075388
680 100.094354
680.5 100.209665
681 100.076365
681.5 100.196648
682 100.110912
682.5 100.140321
683 100.101352
683.5 100.181162
684 100.153649
684.5 100.259495
685 100.111187
685.5 100.142133
686 100.212526
686.5 100.088692
687 100.099361
687.5 100.169718
688 100.196886
688.5 100.161088
689 100.183046
689.5 100.286376
690 100.144207
690.5 100.147271
691 100.21112
691.5 100.246072
692 100.268638
692.5 100.143337
693 100.110936
693.5 100.066245
694 100.133455
694.5 100.122404
695 100.188637
695.5 100.116253
696 100.106335
696.5 100.164437
697 100.152397
697.5 100.129402
698 100.082612
698.5 100.166011
699 100.152671
699.5 100.105667
700 100.097013
700.5 100.216496
701 100.168085
701.5 100.063169
702 100.239897
702.5 100.237191
703 100.103927
703.5 100.052655
704 100.136447
704.5 100.084496
705 100.152695
705.5 100.037229
706 100.113297
706.5 100.099468
707 100.170302
707.5 100.157797
708 100.105429
708.5 100.051546
709 100.159287
709.5 100.093412
710 100.15564
710.5 100.166798
711 100.086427
711.5 100.042224
712 100.170112
712.5 100.197661
713 100.245142
713.5 100.214756
714 100.153637
714.5 100.144827
715 100.167644
715.5 100.248635
716 100.159097
716.5 100.080514
717 100.059283
717.5 100.172424
718 100.055087
718.5 100.056863
719 100.053895
719.5 100.126076
720 100.122809
720.5 100.218546
721 100.215077
721.5 100.209033
722 100.18518
722.5 100.107992
723 100.253618
723.5 100.061953
724 100.190926
724.5 100.059044
725 100.038302
725.5 100.083184
726 100.201547
726.5 100.156105
727 100.108111
727.5 100.172293
728 100.174594
728.5 100.107801
729 100.050771
729.5 100.102782
730 100.157988
730.5 100.071359
731 100.051916
731.5 100.091827
732 100.193131
732.5 100.168407
733 100.227559
733.5 100.250161
734 100.118089
734.5 100.178576
735 100.153923
735.5 100.058889
736 100.059676
736.5 100.089562
737 100.1948
737.5 100.25667
738 100.162017
738.5 100.201309
739 100.115502
739.5 100.261819
740 100.170672
740.5 100.250554
741 100.214255
741.5 100.040972
742 100.099277
742.5 100.134468
743 100.226879
743.5 100.09222
744 100.048685
744.5 100.12418
745 100.341618
745.5 100.106013
746 100.167465
746.5 100.230181
747 100.118423
747.5 100.210428
748 100.215483
748.5 100.184155
749 100.205517
749.5 100.136149
750 100.177574
750.5 100.138533
751 100.086045
751.5 100.131357
752 100.165033
752.5 100.0615
753 100.197184
753.5 99.963433
754 100.22006
754.5 100.253308
755 100.156701
755.5 100.229251
756 100.138497
756.5 100.09582
757 100.220144
757.5 100.071394
758 100.128043
758.5 100.213051
759 100.108099
759.5 100.032675
760 100.213099
760.5 100.218797
761 100.366819
761.5 100.266659
762 100.089407
762.5 100.32264
763 100.195706
763.5 100.122523
764 100.232124
764.5 100.19244
765 100.172579
765.5 100.135767
766 100.161338
766.5 100.288618
767 100.146317
767.5 100.188458
768 100.159955
768.5 100.187433
769 100.21193
769.5 100.231564
