##TITLE= leere Blende_5mm_240124
##JCAMP-DX= 4.24
##DATA TYPE= UV/VIS SPECTRUM
##ORIGIN=  Lambda-SPX/P Scan
##OWNER= Optiplex/OPTIPLEX-755
##DATE= 24.01.2024 17:08:23
##SPECTROMETER/DATA SYSTEM= Lambda 19 UV/Vis/NIR
##SAMPLE DESCRIPTION= 240124
##DELTAX= 0.5
##XUNITS= NANOMETERS
##YUNITS= TRANSMITTANCE
$$COMMENT= RTUNITS 0-1
##XFACTOR= 1.0
##YFACTOR= 0.01
##FIRSTX= 190
##LASTX= 2800
##NPOINTS= 5221
##FIRSTY= 1.007051
##MAXY= 1.009735
##MINY= 0.987666
##XYDATA= (XY..XY)
190 100.705147
190.5 100.973511
191 99.943477
191.5 100.23067
192 99.601346
192.5 98.766553
193 99.943078
193.5 99.495
194 100.180995
194.5 100.455928
195 100.269866
195.5 99.664026
196 100.184464
196.5 100.786746
197 100.118566
197.5 100.553703
198 99.665701
198.5 100.377643
199 100.074148
199.5 100.449741
200 99.695837
200.5 100.162852
201 99.912333
201.5 99.833024
202 100.149
202.5 99.943626
203 99.991727
203.5 99.446952
204 100.274301
204.5 99.737281
205 100.13684
205.5 100.123084
206 100.216353
206.5 100.195599
207 100.097895
207.5 100.282109
208 99.895269
208.5 100.641835
209 99.945438
209.5 100.262058
210 99.892879
210.5 100.241733
211 99.833018
211.5 100.096345
212 99.987525
212.5 99.991518
213 100.141919
213.5 99.658453
214 100.237656
214.5 99.84684
215 100.314415
215.5 99.786514
216 100.202107
216.5 99.934989
217 100.057518
217.5 100.111926
218 99.873829
218.5 100.263083
219 99.874383
219.5 100.22397
220 99.911731
220.5 100.13597
221 99.883121
221.5 100.221145
222 99.970758
222.5 99.939066
223 99.904507
223.5 99.816251
224 100.171554
224.5 99.678063
225 100.109124
225.5 99.728048
226 100.128603
226.5 99.806005
227 100.246739
227.5 99.950212
228 100.049198
228.5 100.149965
229 99.884611
229.5 100.300002
230 99.730253
230.5 100.408626
231 99.774361
231.5 100.313067
232 99.847668
232.5 100.08111
233 99.893343
233.5 99.943119
234 100.133729
234.5 99.887985
235 100.218451
235.5 99.643415
236 100.187719
236.5 99.749345
237 100.18487
237.5 99.833977
238 100.041354
238.5 100.074458
239 99.916983
239.5 100.126338
240 99.881941
240.5 100.288594
241 99.803382
241.5 100.439811
242 99.878454
242.5 100.213706
243 99.913162
243.5 100.100756
244 100.270581
244.5 99.868274
245 100.206208
245.5 99.776351
246 100.171661
246.5 99.690884
247 100.22918
247.5 99.668455
248 100.108743
248.5 99.862361
249 100.057077
249.5 100.039291
250 99.790263
250.5 100.136459
251 99.825865
251.5 100.302112
252 99.823183
252.5 100.334609
253 99.904394
253.5 100.241351
254 100.042868
254.5 99.993497
255 100.174677
255.5 99.904299
256 100.333989
256.5 99.728465
257 100.255716
257.5 99.697709
258 100.222981
258.5 99.758649
259 100.035167
259.5 99.984789
260 99.961191
260.5 100.067675
261 99.761087
261.5 100.227439
262 99.813449
262.5 100.253654
263 99.861377
263.5 100.177264
264 99.998885
264.5 100.085604
265 99.99727
265.5 100.04859
266 100.2985
266.5 99.910557
267 100.286126
267.5 99.680221
268 100.182378
268.5 99.771446
269 100.130796
269.5 99.790221
270 99.968052
270.5 99.985266
271 99.985683
271.5 100.095034
272 99.903822
272.5 100.155461
273 99.836195
273.5 100.123858
274 99.914873
274.5 100.131726
275 99.891454
275.5 99.960411
276 100.192213
276.5 99.889797
277 100.266528
277.5 99.883729
278 100.187898
278.5 99.834728
279 100.082171
279.5 99.753314
280 100.066376
280.5 100.021267
281 99.92761
281.5 100.109458
282 99.803406
282.5 100.041914
283 99.808615
283.5 100.076354
284 99.823666
284.5 100.005519
285 100.001633
285.5 99.939024
286 100.113714
286.5 99.878949
287 100.119925
287.5 99.886823
288 100.205636
288.5 99.857008
289 100.141847
289.5 99.988759
290 100.075066
290.5 99.956411
291 99.887067
291.5 100.157833
292 99.792731
292.5 100.243628
293 99.785393
293.5 100.219846
294 99.71078
294.5 99.994391
295 99.837929
295.5 100.026619
296 100.008214
296.5 99.890572
297 100.072765
297.5 99.850827
298 100.265741
298.5 99.798393
299 100.160873
299.5 99.789345
300 100.133014
300.5 99.89832
301 100.182831
301.5 99.974918
302 99.880826
302.5 100.180292
303 99.748182
303.5 100.262284
304 99.715376
304.5 100.221252
305 99.769688
305.5 100.070214
306 99.916536
306.5 99.912006
307 100.020444
307.5 99.762762
308 100.181174
308.5 99.601454
309 100.17097
309.5 99.7302
310 100.214255
310.5 99.896187
311 100.263262
311.5 99.930274
312 100.014532
312.5 100.203037
313 99.85559
313.5 100.309134
314 99.823481
314.5 100.36422
315 99.886405
315.5 100.285542
316 99.824381
316.5 100.113356
317 99.855381
317.5 99.934393
318 100.029445
318.5 99.922132
319 100.244474
319.5 100.167954
320 100.022447
320.5 100.004637
321 99.951816
321.5 99.987298
322 100.115311
322.5 99.830997
323 100.183856
323.5 99.979901
324 100.162864
324.5 100.097346
325 100.014436
325.5 100.054383
326 99.964273
326.5 100.071645
327 99.866176
327.5 99.904472
328 99.991721
328.5 100.147891
329 100.007939
329.5 99.991018
330 99.973941
330.5 99.758333
331 100.005007
331.5 99.889284
332 100.044262
332.5 99.935967
333 100.09172
333.5 100.088072
334 99.933457
334.5 100.101161
335 100.039649
335.5 100.089264
336 100.058329
336.5 99.959946
337 99.936718
337.5 100.061977
338 99.881291
338.5 100.068045
339 99.995464
339.5 100.017893
340 99.961168
340.5 99.808615
341 100.086141
341.5 99.93993
342 100.039291
342.5 99.918574
343 99.867237
343.5 99.948996
344 100.039506
344.5 100.021899
345 100.152302
345.5 99.969292
346 100.031877
346.5 100.137889
347 99.977475
347.5 99.954182
348 99.858761
348.5 100.015259
349 100.08558
349.5 99.938643
350 100.01508
350.5 100.00627
351 100.117934
351.5 99.872059
352 100.09315
352.5 99.910462
353 99.959517
353.5 99.924809
354 100.000024
354.5 99.958587
355 99.980909
355.5 99.997157
356 100.06094
356.5 100.07596
357 99.923098
357.5 100.147426
358 100.001299
358.5 100.015545
359 99.938029
359.5 100.122213
360 100.001121
360.5 99.987108
361 100.035858
361.5 100.073206
362 100.043535
362.5 99.950331
363 99.991763
363.5 100.034738
364 100.126827
364.5 100.026059
365 99.96289
365.5 100.051844
366 100.019646
366.5 100.067818
367 99.936086
367.5 100.149333
368 99.90617
368.5 100.061285
369 100.014603
369.5 100.132751
370 99.894589
370.5 100.020182
371 99.994081
371.5 100.078738
372 99.99997
372.5 100.071228
373 99.932522
373.5 99.867743
374 99.944252
374.5 99.661207
375 100.11971
375.5 100.029361
376 99.946916
376.5 100.08049
377 100.038922
377.5 100.242019
378 99.958235
378.5 100.271261
379 99.894053
379.5 100.167906
380 100.096011
380.5 99.910951
381 100.086057
381.5 99.971384
382 100.092936
382.5 99.994862
383 100.005364
383.5 99.954545
384 100.042355
384.5 100.141203
385 100.016654
385.5 99.873549
386 100.057197
386.5 100.042784
387 99.831283
387.5 100.053084
388 100.115371
388.5 99.953908
389 99.960697
389.5 100.035882
390 99.959922
390.5 100.096977
391 100.018477
391.5 99.910408
392 100.076675
392.5 100.094819
393 100.080705
393.5 99.934292
394 99.928319
394.5 99.865514
395 100.003302
395.5 100.148129
396 99.994302
396.5 99.995661
397 100.110316
397.5 100.020647
398 100.128126
398.5 99.98399
399 100.026739
399.5 99.973136
400 99.865854
400.5 99.996507
401 100.011063
401.5 99.915469
402 100.035357
402.5 99.96652
403 100.128484
403.5 100.012147
404 100.020194
404.5 99.978006
405 100.082815
405.5 99.992007
406 99.935675
406.5 100.005519
407 99.905163
407.5 99.877536
408 100.044644
408.5 100.021601
409 100.011873
409.5 99.96146
410 99.950361
410.5 99.895209
411 100.008762
411.5 100.114548
412 100.029826
412.5 99.929011
413 100.196874
413.5 99.977195
414 100.071454
414.5 100.092232
415 100.115478
415.5 100.111485
416 99.952227
416.5 100.105822
417 100.260353
417.5 99.966317
418 99.959725
418.5 100.095344
419 100.082493
419.5 100.056207
420 99.876004
420.5 100.051808
421 100.094748
421.5 99.99764
422 100.076592
422.5 99.922955
423 100.010765
423.5 99.982345
424 100.073791
424.5 100.090206
425 99.968541
425.5 100.135505
426 100.040507
426.5 100.014079
427 99.983364
427.5 100.087059
428 100.0489
428.5 100.135052
429 99.89531
429.5 100.099623
430 100.054133
430.5 99.895793
431 99.945885
431.5 100.019777
432 100.171638
432.5 99.932241
433 99.987346
433.5 100.168192
434 100.005043
434.5 100.030971
435 100.128698
435.5 100.084078
436 100.000703
436.5 99.984914
437 99.876535
437.5 100.000298
438 99.928218
438.5 99.869531
439 100.044525
439.5 99.975395
440 99.927849
440.5 100.072455
441 100.024915
441.5 100.013685
442 100.024343
442.5 100.060499
443 99.911648
443.5 99.938011
444 100.026834
444.5 99.942321
445 100.086951
445.5 99.928516
446 99.950558
446.5 99.982309
447 100.023425
447.5 100.021219
448 99.990982
448.5 100.026298
449 100.196314
449.5 99.982214
450 100.023949
450.5 100.038874
451 99.894249
451.5 100.004697
452 100.024378
452.5 99.940211
453 99.982893
453.5 99.877834
454 100.069547
454.5 99.962735
455 100.06969
455.5 99.998015
456 99.914366
456.5 100.020778
457 99.952769
457.5 100.056243
458 99.907136
458.5 100.164115
459 100.063086
459.5 100.080776
460 99.97431
460.5 99.940765
461 100.105524
461.5 99.898326
462 99.994469
462.5 99.973857
463 100.053954
463.5 100.008714
464 100.060868
464.5 99.961841
465 100.009584
465.5 99.984127
466 100.056028
466.5 99.971557
467 99.996215
467.5 99.986821
468 99.992293
468.5 100.11977
469 99.974817
469.5 100.003493
470 99.917477
470.5 100.082719
471 99.981827
471.5 100.100946
472 99.958164
472.5 99.906594
473 100.018728
473.5 99.964488
474 100.114107
474.5 99.890792
475 100.090611
475.5 100.001228
476 99.981588
476.5 99.942243
477 100.011933
477.5 100.019944
478 100.012386
478.5 100.037861
479 99.9605
479.5 100.015497
480 99.984187
480.5 100.032222
481 99.96348
481.5 100.051141
482 100.028181
482.5 100.122476
483 99.9928
483.5 99.969238
484 100.017428
484.5 99.990577
485 100.033808
485.5 99.94657
486 100.071704
486.5 100.066888
487 100.031555
487.5 99.962032
488 99.970549
488.5 100.032473
489 99.960077
489.5 99.989092
490 99.986184
490.5 99.970269
491 100.032878
491.5 99.995035
492 100.025666
492.5 99.93605
493 99.957281
493.5 100.057936
494 100.03556
494.5 99.878788
495 100.009668
495.5 99.995661
496 99.999601
496.5 99.938941
497 99.954402
497.5 100.045609
498 99.920237
498.5 100.099146
499 100.033367
499.5 100.052011
500 99.932551
500.5 99.97161
501 100.105393
501.5 100.00819
502 99.910319
502.5 99.981105
503 100.002193
503.5 99.966729
504 100.04319
504.5 99.949819
505 100.081933
505.5 99.957937
506 100.059569
506.5 100.068069
507 99.960643
507.5 100.021136
508 99.992031
508.5 100.027418
509 100.05039
509.5 99.97471
510 100.007975
510.5 99.990231
511 99.950975
511.5 99.967295
512 99.992609
512.5 99.98185
513 99.96857
513.5 100.066423
514 100.004184
514.5 100.036323
515 99.961096
515.5 99.96503
516 100.044572
516.5 99.960405
517 99.967343
517.5 100.039232
518 100.096774
518.5 100.032854
519 99.889225
519.5 100.036275
520 99.986196
520.5 100.047386
521 100.131106
521.5 99.981087
522 99.912369
522.5 100.063133
523 100.058079
523.5 100.014663
524 100.004768
524.5 99.940062
525 100.037313
525.5 99.943191
526 99.982905
526.5 99.976939
527 100.0422
527.5 99.992353
528 100.043476
528.5 100.107336
529 100.02656
529.5 100.084674
530 100.0422
530.5 99.966085
531 99.971247
531.5 100.016665
532 99.947017
532.5 99.986488
533 99.909937
533.5 100.055695
534 99.910337
534.5 100.023949
535 100.049412
535.5 100.033641
536 100.04245
536.5 100.032222
537 99.966353
537.5 99.924177
538 100.062895
538.5 99.968255
539 100.055063
539.5 99.975574
540 100.101697
540.5 100.085163
541 100.008011
541.5 100.08961
542 99.979758
542.5 100.104928
543 100.015271
543.5 100.082457
544 99.900109
544.5 100.043106
545 100.101244
545.5 100.102854
546 100.035238
546.5 99.986458
547 100.020051
547.5 100.001967
548 100.087404
548.5 99.992627
549 100.037742
549.5 99.992543
550 100.100946
550.5 99.992418
551 99.989605
551.5 99.976838
552 99.924356
552.5 100.065792
553 99.92097
553.5 100.074935
554 100.081086
554.5 100.061893
555 99.982846
555.5 99.959093
556 99.961638
556.5 99.961847
557 100.006592
557.5 99.974638
558 99.996448
558.5 99.901676
559 99.894381
559.5 100.097167
560 99.963433
560.5 100.046635
561 100.066841
561.5 100.075281
562 100.008965
562.5 100.051272
563 99.94508
563.5 100.050461
564 99.996573
564.5 99.978447
565 99.963689
565.5 100.084484
566 100.006723
566.5 100.003278
567 100.0301
567.5 99.967653
568 100.007761
568.5 100.004148
569 100.062406
569.5 100.030661
570 100.017023
570.5 99.971193
571 100.014138
571.5 99.968725
572 99.992698
572.5 99.976468
573 99.940681
573.5 99.992722
574 99.945879
574.5 100.028455
575 100.06355
575.5 100.004101
576 100.011575
576.5 100.079024
577 100.052226
577.5 99.971104
578 100.040972
578.5 99.963796
579 100.10581
579.5 100.029767
580 100.045812
580.5 100.047159
581 100.024915
581.5 100.070739
582 100.000668
582.5 100.057471
583 99.974811
583.5 100.104022
584 99.98737
584.5 99.961621
585 99.940842
585.5 100.02619
586 100.01353
586.5 99.978673
587 100.022101
587.5 100.010109
588 100.00205
588.5 99.99004
589 100.135374
589.5 100.0139
590 99.994177
590.5 99.974865
591 100.041008
591.5 100.077486
592 100.035965
592.5 100.058162
593 99.958509
593.5 100.010455
594 99.956733
594.5 100.056696
595 99.958384
595.5 100.054383
596 100.039268
596.5 99.973637
597 100.091434
597.5 99.913752
598 100.030243
598.5 100.031292
599 99.993944
599.5 99.978226
600 100.014377
600.5 99.983644
601 100.041592
601.5 99.991608
602 99.95476
602.5 100.034487
603 99.949658
603.5 100.090373
604 100.022328
604.5 100.068355
605 99.881184
605.5 100.008667
606 99.96919
606.5 100.048828
607 99.928159
607.5 100.023544
608 100.017798
608.5 99.962646
609 100.006711
609.5 99.946254
610 99.961823
610.5 99.972248
611 100.031173
611.5 100.044167
612 100.09495
612.5 100.020528
613 99.995434
613.5 100.040746
614 99.958348
614.5 100.094473
615 100.040269
615.5 100.012875
616 99.977905
616.5 99.975628
617 99.972963
617.5 99.978876
618 100.02619
618.5 99.984103
619 100.051618
619.5 99.904907
620 100.075865
620.5 99.95845
621 100.08496
621.5 99.991608
622 100.058842
622.5 99.991286
623 100.028336
623.5 99.984711
624 99.920094
624.5 100.01756
625 99.987036
625.5 100.104499
626 100.087869
626.5 100.088584
627 99.995965
627.5 100.004709
628 100.085366
628.5 99.980342
629 99.948615
629.5 100.049889
630 100.042498
630.5 100.054872
631 100.037146
631.5 100.068665
632 100.044382
632.5 99.954432
633 100.012887
633.5 100.017452
634 99.982423
634.5 100.027442
635 99.933213
635.5 100.037622
636 99.975985
636.5 99.999303
637 100.035369
637.5 100.04698
638 100.008965
638.5 100.007749
639 100.004625
639.5 99.960864
640 99.984854
640.5 100.076365
641 100.030661
641.5 99.820817
642 100.047314
642.5 100.02408
643 99.960232
643.5 99.957258
644 100.043285
644.5 100.019348
645 99.906331
645.5 100.013363
646 100.00931
646.5 100.076199
647 99.865431
647.5 99.925983
648 99.992871
648.5 100.034797
649 99.948502
649.5 99.974942
650 100.09625
650.5 99.939102
651 100.08719
651.5 100.014269
652 100.036812
652.5 99.97099
653 99.987388
653.5 99.932754
654 99.988067
654.5 99.981207
655 99.998885
655.5 100.110698
656 99.945873
656.5 100.067031
657 99.963838
657.5 100.054753
658 99.985784
658.5 100.092721
659 99.994427
659.5 99.994963
660 99.975097
660.5 99.968714
661 99.993616
661.5 99.989688
662 100.038719
662.5 99.990892
663 100.117433
663.5 99.984467
664 100.044191
664.5 99.984342
665 99.996608
665.5 99.986798
666 99.993849
666.5 100.0139
667 99.853683
667.5 100.001955
668 99.962139
668.5 99.988449
669 99.99845
669.5 100.012529
670 100.072622
670.5 100.026655
671 100.042164
671.5 99.964559
672 100.078082
672.5 100.023985
673 100.063825
673.5 99.969149
674 100.041151
674.5 100.040984
675 100.008368
675.5 100.051785
676 99.95051
676.5 100.041342
677 99.997836
677.5 100.032985
678 100.032449
678.5 100.117683
679 99.978048
679.5 99.998468
680 100.007367
680.5 99.985993
681 99.966514
681.5 100.01303
682 99.991012
682.5 99.952972
683 100.027156
683.5 100.078404
684 99.976003
684.5 99.99581
685 100.048339
685.5 99.870992
686 100.014055
686.5 100.059736
687 99.957359
687.5 100.028169
688 100.046563
688.5 100.034106
689 100.005472
689.5 100.097406
690 100.096214
690.5 99.995893
691 100.104105
691.5 100.009811
692 100.058866
692.5 99.98889
693 99.985796
693.5 100.033998
694 99.903935
694.5 100.064635
695 100.054014
695.5 100.152075
696 99.941862
696.5 99.996048
697 100.106061
697.5 99.896336
698 99.978936
698.5 99.939102
699 100.088513
699.5 99.979419
700 100.068057
700.5 100.011432
701 100.017905
701.5 100.079405
702 99.97074
702.5 100.022089
703 100.051296
703.5 100.086296
704 99.981999
704.5 100.076008
705 100.050867
705.5 100.062907
706 100.0453
706.5 99.971664
707 99.977165
707.5 100.045109
708 100.026727
708.5 99.968475
709 100.014126
709.5 99.951071
710 100.109649
710.5 99.971718
711 99.989349
711.5 99.905545
712 100.029719
712.5 99.937528
713 99.983281
713.5 99.968779
714 99.943787
714.5 100.073004
715 99.872309
715.5 100.066173
716 99.9713
716.5 99.926603
717 99.918371
717.5 99.970096
718 99.905235
718.5 99.87489
719 99.961483
719.5 100.067341
720 100.077546
720.5 99.953216
721 99.988949
721.5 100.033152
722 100.064111
722.5 100.01297
723 99.950594
723.5 99.917245
724 99.97226
724.5 100.043166
725 99.957132
725.5 99.953675
726 99.922168
726.5 99.958938
727 99.962801
727.5 99.991322
728 100.028372
728.5 100.030386
729 99.974245
729.5 99.992394
730 100.041938
730.5 99.988127
731 100.043762
731.5 99.952406
732 100.164211
732.5 100.113869
733 99.916184
733.5 100.033319
734 100.029278
734.5 100.099754
735 99.917227
735.5 99.985856
736 99.995297
736.5 100.037181
737 100.04766
737.5 100.024104
738 99.893993
738.5 100.157654
739 100.05281
739.5 100.044847
740 100.016761
740.5 100.042975
741 100.066197
741.5 100.000334
742 100.120711
742.5 100.089693
743 99.987721
743.5 99.982589
744 99.911439
744.5 100.046718
745 99.885291
745.5 100.137186
746 100.081587
746.5 100.024235
747 99.797916
747.5 100.059259
748 100.040233
748.5 100.046051
749 100.084388
749.5 100.06417
750 100.136411
750.5 99.962765
751 100.023508
751.5 99.987948
752 99.971759
752.5 99.916971
753 99.996072
753.5 99.990886
754 100.109792
754.5 100.103021
755 99.975336
755.5 100.064921
756 99.998033
756.5 100.027168
757 100.01173
757.5 100.104117
758 100.003493
758.5 100.113964
759 99.927813
759.5 100.04462
760 100.004208
760.5 99.951619
761 100.048816
761.5 99.930763
762 100.042796
762.5 100.04952
763 100.00546
763.5 99.986708
764 100.114143
764.5 100.105035
765 100.004399
765.5 100.004327
766 100.095868
766.5 100.007403
767 99.99097
767.5 100.08955
768 100.078034
768.5 99.890214
769 100.073242
769.5 100.06144
770 99.965423
770.5 99.996489
771 100.056064
771.5 100.011086
772 99.972874
772.5 99.90055
773 100.020313
773.5 99.91163
774 99.992138
774.5 99.939191
775 100.005352
775.5 100.084722
776 99.966276
776.5 99.929714
777 100.003791
777.5 100.009537
778 100.076187
778.5 100.123644
779 99.972594
779.5 100.142145
780 99.997002
780.5 100.010896
781 100.053728
781.5 100.115812
782 99.942148
782.5 99.995017
